# Step     T (K)     E_KS (eV)    E_tot (eV)   Vol (A^3)    P (kBar)
     1  13435.86    -900.59944    -895.38948    1000.000       5.876
     2  13426.18    -900.59431    -895.38810    1000.000       6.083
     3  13430.77    -900.59624    -895.38826    1000.000       6.037
     4  13448.45    -900.60461    -895.38977    1000.000       5.748
     5  13444.16    -900.60258    -895.38940    1000.000       5.393
     6  13433.37    -900.59734    -895.38835    1000.000       5.133
     7  13455.17    -900.60497    -895.38752    1000.000       5.042
     8  13491.55    -900.62043    -895.38888    1000.000       5.187
     9  13495.08    -900.61904    -895.38612    1000.000       5.408
    10  13441.67    -900.59326    -895.38105    1000.000       5.682
    11  13322.02    -900.54967    -895.38386    1000.000       5.765
    12  13034.85    -900.44444    -895.38998    1000.000       5.995
    13  12375.55    -900.20035    -895.40154    1000.000       6.691
    14  11165.25    -899.73870    -895.40921    1000.000       7.843
    15   9173.77    -898.96933    -895.41206    1000.000      10.055
    16   6377.51    -897.87684    -895.40386    1000.000      12.561
    17   3571.04    -896.72167    -895.33694    1000.000      14.032
    18   2076.39    -896.12535    -895.32020    1000.000      12.804
    19   2085.98    -896.15643    -895.34756    1000.000      10.306
    20   2711.43    -896.42278    -895.37138    1000.000       7.663
    21   3291.85    -896.65458    -895.37811    1000.000       5.412
    22   3711.62    -896.81294    -895.37370    1000.000       3.496
    23   4132.17    -896.97404    -895.37173    1000.000       1.687
    24   4758.94    -897.22246    -895.37711    1000.000       0.216
    25   5683.93    -897.59777    -895.39374    1000.000      -0.663
    26   6704.36    -898.01561    -895.41590    1000.000      -0.628
    27   7382.49    -898.28736    -895.42469    1000.000       0.270
    28   7582.35    -898.35433    -895.41416    1000.000       1.032
    29   7514.27    -898.34595    -895.43219    1000.000       0.531
    30   6994.14    -898.15294    -895.44086    1000.000      -0.772
    31   5953.20    -897.73571    -895.42726    1000.000      -2.046
    32   4851.92    -897.29945    -895.41804    1000.000      -3.059
    33   4083.62    -897.00220    -895.41871    1000.000      -3.787
    34   3747.29    -896.87784    -895.42477    1000.000      -4.137
    35   3771.76    -896.89295    -895.43040    1000.000      -4.062
    36   4030.32    -896.99707    -895.43425    1000.000      -3.519
    37   4387.37    -897.14084    -895.43958    1000.000      -2.488
    38   4643.65    -897.25570    -895.45505    1000.000      -0.900
    39   4382.10    -897.16771    -895.46848    1000.000       1.383
    40   4230.74    -897.01323    -895.37269    1000.000       2.830
    41   6022.69    -897.81600    -895.48061    1000.000      -0.014
    42   7643.59    -898.46301    -895.49910    1000.000      -3.350
    43   7713.36    -898.44502    -895.45405    1000.000      -5.158
    44   7453.86    -898.32186    -895.43152    1000.000      -6.374
    45   7773.31    -898.43660    -895.42239    1000.000      -7.080
    46   9063.94    -898.93167    -895.41699    1000.000      -7.135
    47  11523.63    -899.89023    -895.42177    1000.000      -6.315
    48  14760.49    -901.22032    -895.49672    1000.000      -3.697
    49  15169.56    -901.70580    -895.82357    1000.000       3.443
    50   9641.66    -898.53907    -894.80037    1000.000      15.874
    51  13427.22    -901.08986    -895.88326    1000.000       7.517
    52  12969.56    -900.63316    -895.60402    1000.000       7.645
    53   9687.77    -899.19780    -895.44122    1000.000       8.455
    54   8594.68    -898.88803    -895.55531    1000.000       4.657
    55   7904.67    -898.61531    -895.55015    1000.000       1.254
    56   6826.60    -898.14629    -895.49918    1000.000      -0.684
    57   6364.45    -897.99066    -895.52275    1000.000      -1.847
    58   6481.65    -898.04358    -895.53022    1000.000      -2.229
    59   6767.12    -898.15914    -895.53509    1000.000      -2.047
    60   6994.58    -898.25123    -895.53897    1000.000      -1.486
    61   7023.74    -898.26271    -895.53915    1000.000      -0.754
    62   6826.78    -898.18163    -895.53444    1000.000      -0.146
    63   6517.58    -898.05202    -895.52473    1000.000       0.094
    64   6271.36    -897.94559    -895.51377    1000.000      -0.216
    65   6221.55    -897.92488    -895.51239    1000.000      -0.877
    66   6420.96    -898.01539    -895.52557    1000.000      -1.469
    67   6761.24    -898.16184    -895.54007    1000.000      -1.334
    68   6955.02    -898.24263    -895.54571    1000.000      -0.474
    69   6894.04    -898.20678    -895.53352    1000.000       0.568
    70   6989.50    -898.22663    -895.51635    1000.000       0.798
    71   7929.58    -898.59923    -895.52442    1000.000       0.089
    72   9580.10    -899.25622    -895.54139    1000.000      -0.462
    73  11230.37    -899.90582    -895.55108    1000.000       0.099
    74  12459.75    -900.39201    -895.56056    1000.000       2.039
    75  12686.03    -900.53773    -895.61854    1000.000       5.549
    76   9082.59    -899.35376    -895.83185    1000.000      12.168
    77   8423.14    -898.24869    -894.98249    1000.000      14.198
    78  16913.38    -901.99390    -895.43549    1000.000       1.498
    79  16792.99    -901.67406    -895.16232    1000.000       0.705
    80  14038.46    -900.55293    -895.10931    1000.000       0.115
    81  11302.90    -899.48453    -895.10165    1000.000      -0.264
    82   8931.07    -898.55977    -895.09662    1000.000      -0.303
    83   7007.17    -897.81021    -895.09307    1000.000      -0.353
    84   5571.46    -897.25444    -895.09402    1000.000      -0.548
    85   4569.33    -896.86828    -895.09646    1000.000      -0.755
    86   3909.00    -896.61415    -895.09838    1000.000      -0.905
    87   3514.92    -896.46235    -895.09939    1000.000      -0.988
    88   3356.96    -896.40057    -895.09886    1000.000      -1.143
    89   3427.26    -896.42880    -895.09983    1000.000      -1.617
    90   3648.28    -896.51853    -895.10386    1000.000      -2.442
    91   3857.94    -896.60143    -895.10546    1000.000      -3.444
    92   3961.21    -896.63830    -895.10228    1000.000      -4.366
    93   4017.28    -896.65354    -895.09578    1000.000      -5.079
    94   4165.63    -896.70512    -895.08984    1000.000      -5.535
    95   4512.99    -896.83696    -895.08698    1000.000      -5.598
    96   5063.81    -897.05062    -895.08705    1000.000      -5.319
    97   5702.05    -897.30035    -895.08929    1000.000      -4.618
    98   6246.66    -897.51160    -895.08936    1000.000      -3.643
    99   6620.10    -897.65029    -895.08324    1000.000      -2.732
   100   6903.35    -897.75805    -895.08118    1000.000      -2.300
